== Analysis Data ==
                                               Administrative information

Analysis performed on:                                                        2016/04/26
Analysis performed by:                                                        Ayupov
Comments:                                                                      
Instrument:                                                                   Autosorb iQ S/N:14715112301 Station: 2
Instrument version:                                                           4.00.14111
Software version:                                                             4.0
 
                                                   Sample information

Id:                                                                           SARM 2005_2
Description:                                                                  Reference sample SARM 2005
Weight:                                                                       0.1114 g
 
                                                  Analysis information

Analysis gas:                                                                 Nitrogen
Cross Section Area:                                                           16.2 
Molecular weight:                                                             28.0134 
Non-ideality correction:                                                      6.58e-05 
Ambient temperature:                                                          300 K
== Data Reduction Parameters ==
                  Thermal Transpiration: off    Eff. mol. diameter (D): 3.54 Å      Eff. cell stem diam. (d): 4.0000 mm
t-Method          Calc. method: de Boer
Alpha-s method    Std. isotherm: _AALUM1        P / Po :          0.00
BJH/DH method     Moving pt. avg.: 3            Ignoring P-tags below 0.35 P/Po
DA Method         Incr. E:    500.000           Incr. n:          0.100             Interact. Const. (K): 2.960nm³ x kJ / mol
DR method         Affinity coefficient (ß): 0.3300
Adsorbate model   Nitrogen                      Temperature       77.350K
                  Molec. Wt.: 28.013            Cross Section:    16.200  Å²        Liquid Density:   0.806  g/cc
                  Contact Angle: 0.0  degrees   Surf. Tension:    8.850  erg/cm²
                  Critical Temp.: 126.200  K    Critical Press.:  33.500  atm       SuperCritic. K.:  1.000
                  Avg. Diameter:0.300  nm       Polarizability:   1.460  (cc/molec) x 10-24Magn. Suscept.:2.000
                  Molec. Density6.700  (mol/cm²)x1014
== Extended Outgas Data ==
                                               Outgas Temperature Profile
  
                  Target Temp. (deg)                      Rate (deg/min)                     Soak Time (min)
  
1.                              80.0                                 1.0                                  30
2.                              90.0                                 1.0                                  30
3.                             120.0                                 1.0                                  30
4.                             300.0                                 1.0                                 180
 
                          Pressure Controlled Heating:      Limit: 0.1 torr
 
                                                Empty Cell Weight:      17.5768 g
                                  Pre-outgas Weight (Cell+Sample):      17.6908 g
                                 Post-outgas Weight (Cell+Sample):      17.6882 g
== Isotherm ==


                          Relative                                                  Volume @ STP
                          Pressure                                                         
                                                                                        cc/g

                             1.20088e-03                                                13.0835
                             1.31556e-03                                                13.2544
                             1.67193e-03                                                13.7512
                             2.09446e-03                                                14.2547
                             2.62482e-03                                                14.7650
                             3.31092e-03                                                15.3043
                             4.02773e-03                                                15.8017
                             5.17717e-03                                                16.4523
                             6.38845e-03                                                16.9876
                             7.98744e-03                                                17.5853
                             2.51514e-02                                                20.7337
                             5.03002e-02                                                22.8987
                             7.45211e-02                                                24.3661
                             9.99560e-02                                                25.6746
                             1.25532e-01                                                26.8547
                             1.50213e-01                                                27.9453
                             1.75308e-01                                                29.0204
                             2.00193e-01                                                30.0796
                             2.25260e-01                                                31.1375
                             2.50257e-01                                                32.2031
                             2.74975e-01                                                33.3418
                             3.00206e-01                                                34.4504
                             3.25268e-01                                                35.5638
                             3.49947e-01                                                36.6971
                             3.74957e-01                                                37.8475
                             3.99735e-01                                                39.0499
                             4.24689e-01                                                40.2834
                             4.49367e-01                                                41.5761
                             4.74054e-01                                                42.9098
                             5.00412e-01                                                44.5494
                             5.25844e-01                                                46.1233
                             5.50610e-01                                                47.7523
                             5.75136e-01                                                49.4636
                             5.99440e-01                                                51.3509
                             6.25514e-01                                                53.7249
                             6.50382e-01                                                56.1971
                             6.74216e-01                                                58.9221
                             7.00264e-01                                                62.3421
                             7.24526e-01                                                66.2484
                             7.49531e-01                                                71.6207
                             7.75806e-01                                                78.6438
                             7.99678e-01                                                87.8606
                             8.24069e-01                                               101.7568
                             8.49852e-01                                               123.3901
                             8.74205e-01                                               152.9446
                             8.99829e-01                                               188.5904
                             9.24632e-01                                               222.5209
                             9.49831e-01                                               251.1324
                             9.75321e-01                                               273.8937
                             9.89587e-01                                               282.2986
                             9.93801e-01                                               284.9700
                             9.91749e-01                                               285.1767
                             9.89763e-01                                               284.8126
                             9.76289e-01                                               280.7295
                             9.51154e-01                                               273.6203
                             9.25089e-01                                               260.6150
                             8.99688e-01                                               239.3406
                             8.75514e-01                                               215.4063
                             8.51170e-01                                               187.1554
                             8.25464e-01                                               159.4967
                             8.00963e-01                                               133.0306
                             7.76029e-01                                               102.0092
                             7.50327e-01                                                83.4763
                             7.25957e-01                                                73.3654
                             6.99452e-01                                                66.7588
                             6.74517e-01                                                62.1022
                             6.49443e-01                                                58.7103
                             6.24946e-01                                                56.0767
                             5.99266e-01                                                53.5122
                             5.75347e-01                                                51.4375
                             5.50495e-01                                                49.4755
                             5.24431e-01                                                47.6344
                             4.99023e-01                                                45.9070
                             4.75578e-01                                                44.4743
                             4.48701e-01                                                42.8142
                             4.25304e-01                                                41.4744
                             4.00868e-01                                                40.1132
                             3.75569e-01                                                38.7775
                             3.50082e-01                                                37.4836
                             3.24741e-01                                                36.2603
                             2.99857e-01                                                35.0365
                             2.74789e-01                                                33.8136
                             2.49828e-01                                                32.6097
                             2.24838e-01                                                31.4212
                             1.99721e-01                                                30.2285
                             1.74623e-01                                                29.0372
                             1.49785e-01                                                27.8482
                             1.24876e-01                                                26.6202
                             1.00330e-01                                                25.3551
                             7.57544e-02                                                23.9817
                             4.90267e-02                                                22.2256
                             2.41355e-02                                                19.8957
== Absolute Isotherm ==


                          Pressure                                                  Volume @ STP
                                                                                           
                            Torr                                                        cc/g

                             0.9128                                                     13.0835
                             0.9993                                                     13.2544
                             1.2697                                                     13.7512
                             1.5903                                                     14.2547
                             1.9908                                                     14.7650
                             2.5116                                                     15.3043
                             3.0528                                                     15.8017
                             3.9244                                                     16.4523
                             4.8408                                                     16.9876
                             6.0526                                                     17.5853
                            19.0570                                                     20.7337
                            38.1134                                                     22.8987
                            56.4636                                                     24.3661
                            75.7370                                                     25.6746
                            95.1083                                                     26.8547
                           113.7673                                                     27.9453
                           132.7587                                                     29.0204
                           151.6471                                                     30.0796
                           170.6835                                                     31.1375
                           189.5361                                                     32.2031
                           208.2854                                                     33.3418
                           227.3582                                                     34.4504
                           246.2860                                                     35.5638
                           265.0766                                                     36.6971
                           283.9195                                                     37.8475
                           302.6858                                                     39.0499
                           321.4611                                                     40.2834
                           340.2333                                                     41.5761
                           358.8824                                                     42.9098
                           378.7435                                                     44.5494
                           398.0235                                                     46.1233
                           416.7191                                                     47.7523
                           435.2981                                                     49.4636
                           453.9745                                                     51.3509
                           473.6136                                                     53.7249
                           492.1311                                                     56.1971
                           510.3647                                                     58.9221
                           529.7898                                                     62.3421
                           548.0715                                                     66.2484
                           566.9085                                                     71.6207
                           586.8866                                                     78.6438
                           604.7531                                                     87.8606
                           623.1903                                                    101.7568
                           642.4735                                                    123.3901
                           660.8378                                                    152.9446
                           679.7297                                                    188.5904
                           698.2933                                                    222.5209
                           716.5763                                                    251.1324
                           735.8528                                                    273.8937
                           746.8275                                                    282.2986
                           749.8840                                                    284.9700
                           748.3251                                                    285.1767
                           746.6590                                                    284.8126
                           736.7205                                                    280.7295
                           717.6750                                                    273.6203
                           698.3240                                                    260.6150
                           679.2468                                                    239.3406
                           660.5299                                                    215.4063
                           641.7515                                                    187.1554
                           622.6776                                                    159.4967
                           603.9519                                                    133.0306
                           584.8784                                                    102.0092
                           565.3792                                                     83.4763
                           546.8845                                                     73.3654
                           527.3714                                                     66.7588
                           508.0987                                                     62.1022
                           489.4144                                                     58.7103
                           471.1526                                                     56.0767
                           451.4906                                                     53.5122
                           433.5469                                                     51.4375
                           414.6561                                                     49.4755
                           395.3755                                                     47.6344
                           376.0671                                                     45.9070
                           358.7072                                                     44.4743
                           338.2424                                                     42.8142
                           320.5642                                                     41.4744
                           301.9458                                                     40.1132
                           283.0616                                                     38.7775
                           263.9090                                                     37.4836
                           244.7887                                                     36.2603
                           226.1337                                                     35.0365
                           207.1683                                                     33.8136
                           188.2616                                                     32.6097
                           169.5092                                                     31.4212
                           150.5394                                                     30.2285
                           131.6283                                                     29.0372
                           112.8936                                                     27.8482
                            94.1100                                                     26.6202
                            75.6313                                                     25.3551
                            57.0723                                                     23.9817
                            36.9711                                                     22.2256
                            18.1962                                                     19.8957
