== Analysis Data ==
                                               Administrative information

Analysis performed on:                                                        12/10/2015
Analysis performed by:                                                        Ayupov
Comments:                                                                     bulb 9 mm w/rod
Instrument:                                                                   AS6KR/MP Station: 4
Instrument version:                                                           n/a
Software version:                                                             2.02
 
                                                  Sample ifnformation

Id:                                                                           Nb EISA 183
Description:                                                                  Maksimchuk
Weight:                                                                       0.0349 g
 
                                             Sample preparation information

Outgas time:                                                                  3.0 hrs
Outgas temperature:                                                           300.0 C
 
                                                  Analysis information

Analysis gas:                                                                 Carbon-dioxide
Cross Section Area:                                                           21 
Molecular weight:                                                             44.01 
Non-ideality correction:                                                      9.1e-06 
Ambient temperature:                                                          300 K
Pressure tolerance band:                                                      0
Equilibration time:                                                           1
== Data Reduction Parameters ==
                  Thermal Transpiration: off    Eff. mol. diameter (D): 3.54 Å      Eff. cell stem diam. (d): 4.0000 mm
                  Po override: 26142.00 Torr
t-Method          Calc. method: de Boer
Adsorbate         Carbon-dioxide                Temperature       273.150K
                  Molec. Wt.: 44.010            Cross Section:    21.000  Å²        Liquid Density:   0.927  g/cc
                  Contact Angle: 0.0  degrees   Surf. Tension:    4.350  erg/cm²
                  Critical Temp.: 304.100  K    Critical Press.:  72.900  atm       SuperCritic. K.:  1.000
                  Avg. Diameter:0.330  nm       Polarizability:   2.560  (cc/molec) x 10-24Magn. Suscept.:3.500
                  Molec. Density6.420  (mol/cm²)x1014
Adsorbent         Carbon
== Isotherm ==


                          Relative                                                  Volume @ STP
                          Pressure                                                         
                                                                                        cc/g

                             4.32438e-05                                                 0.1098
                             6.18817e-05                                                 0.1526
                             1.49219e-04                                                 0.4062
                             1.86045e-04                                                 0.5111
                             2.55910e-04                                                 0.7142
                             3.08099e-04                                                 0.8627
                             8.11675e-04                                                 2.1765
                             1.56345e-03                                                 4.0003
                             2.33252e-03                                                 5.7337
                             3.10172e-03                                                 7.3787
                             3.86553e-03                                                 8.9632
                             4.63197e-03                                                10.4583
                             5.39655e-03                                                11.8784
                             6.16523e-03                                                13.2695
                             6.92885e-03                                                14.6373
                             7.69475e-03                                                15.9712
                             8.46069e-03                                                17.2671
                             9.22694e-03                                                18.5443
                             9.99017e-03                                                19.7914
                             1.07575e-02                                                21.0278
                             1.15241e-02                                                22.2312
                             1.22887e-02                                                23.4195
                             1.30527e-02                                                24.5927
                             1.38180e-02                                                25.7353
                             1.45845e-02                                                26.8672
                             1.53506e-02                                                27.9804
                             1.61161e-02                                                29.0681
                             1.68804e-02                                                30.1597
                             1.76445e-02                                                31.2360
                             1.84072e-02                                                32.3070
                             1.91744e-02                                                33.3722
                             1.99385e-02                                                34.4403
                             2.07033e-02                                                35.4806
                             2.14702e-02                                                36.5318
                             2.22365e-02                                                37.5800
                             2.30036e-02                                                38.5015
                             2.37673e-02                                                39.4057
                             2.45353e-02                                                40.3149
                             2.53009e-02                                                41.1974
                             2.60636e-02                                                42.0767
                             2.68287e-02                                                42.9447
                             2.75949e-02                                                43.8070
                             2.79106e-02                                                44.4020
                             2.82189e-02                                                44.9774
                             2.83802e-02                                                45.2950
                             2.85315e-02                                                45.5973
                             2.88304e-02                                                46.1695
                             2.91372e-02                                                46.7348
                             2.94436e-02                                                47.2916
                             2.97490e-02                                                47.8650
                             2.99097e-02                                                48.1665
                             3.00618e-02                                                48.4586
                             3.03628e-02                                                48.9783
                             3.04329e-02                                                49.1728
== Absolute Isotherm ==


                          Pressure                                                  Volume @ STP
                                                                                           
                            Torr                                                        cc/g

                             1.1305                                                      0.1098
                             1.6177                                                      0.1526
                             3.9009                                                      0.4062
                             4.8636                                                      0.5111
                             6.6900                                                      0.7142
                             8.0543                                                      0.8627
                            21.2188                                                      2.1765
                            40.8718                                                      4.0003
                            60.9767                                                      5.7337
                            81.0851                                                      7.3787
                           101.0527                                                      8.9632
                           121.0890                                                     10.4583
                           141.0767                                                     11.8784
                           161.1715                                                     13.2695
                           181.1340                                                     14.6373
                           201.1561                                                     15.9712
                           221.1794                                                     17.2671
                           241.2107                                                     18.5443
                           261.1631                                                     19.7914
                           281.2227                                                     21.0278
                           301.2627                                                     22.2312
                           321.2509                                                     23.4195
                           341.2248                                                     24.5927
                           361.2291                                                     25.7353
                           381.2668                                                     26.8672
                           401.2952                                                     27.9804
                           421.3067                                                     29.0681
                           441.2868                                                     30.1597
                           461.2626                                                     31.2360
                           481.2001                                                     32.3070
                           501.2578                                                     33.3722
                           521.2332                                                     34.4403
                           541.2267                                                     35.4806
                           561.2730                                                     36.5318
                           581.3062                                                     37.5800
                           601.3604                                                     38.5015
                           621.3260                                                     39.4057
                           641.4020                                                     40.3149
                           661.4171                                                     41.1974
                           681.3542                                                     42.0767
                           701.3553                                                     42.9447
                           721.3847                                                     43.8070
                           729.6385                                                     44.4020
                           737.6980                                                     44.9774
                           741.9147                                                     45.2950
                           745.8708                                                     45.5973
                           753.6842                                                     46.1695
                           761.7052                                                     46.7348
                           769.7143                                                     47.2916
                           777.6985                                                     47.8650
                           781.8988                                                     48.1665
                           785.8759                                                     48.4586
                           793.7443                                                     48.9783
                           795.5775                                                     49.1728
